#	Time(fs)	Total Energy(kcal/mol)	Potential Energy(kcal/mol)	Kinetic Energy(kcal/mol)	Temperature(K)	Pressure(atm)	Volume(A^3)	Conserved Quantity(kcal/mol)
	0	505.85717	-81.483949	587.34111	304.54388	20381.945	7259.3462	505.85717
	10	506.46363	-72.091869	578.55549	299.98842	20339.083	7259.3462	506.46363
	20	506.23953	-51.829679	558.06921	289.36602	20474.058	7259.3462	506.23953
	30	505.95834	-86.894028	592.85237	307.40154	20667.885	7259.3462	505.95834
	40	506.25451	-72.29468	578.54919	299.98515	20543.305	7259.3462	506.25451
	50	505.93607	-78.697718	584.63379	303.1401	20698.782	7259.3462	505.93607
	60	506.34538	-81.588005	587.93338	304.85098	20594.393	7259.3462	506.34538
	70	505.78118	-74.8363	580.61748	301.05759	20665.181	7259.3462	505.78118
	80	506.4104	-80.698293	587.10869	304.42337	20558.362	7259.3462	506.4104
	90	506.25775	-61.133666	567.39141	294.1997	19984.389	7259.3462	506.25775
	100	506.28277	-71.334737	577.61751	299.50207	20036.307	7259.3462	506.28277
	110	505.92948	-82.690329	588.61981	305.2069	19979.232	7259.3462	505.92948
	120	505.78388	-78.809083	584.59297	303.11893	19668.031	7259.3462	505.78388
	130	506.3324	-85.686194	592.0186	306.96921	19485.836	7259.3462	506.3324
	140	505.92751	-63.550138	569.47765	295.28144	19115.727	7259.3462	505.92751
	150	506.69399	-64.635048	571.32903	296.24141	19306.38	7259.3462	506.69399
	160	505.76005	-71.917677	577.67773	299.53329	20122.803	7259.3462	505.76005
	170	505.9314	-56.183847	562.11525	291.46394	20297.12	7259.3462	505.9314
	180	506.39008	-73.682064	580.07214	300.77483	20062.901	7259.3462	506.39008
	190	505.99885	-59.278242	565.27709	293.1034	19706.987	7259.3462	505.99885
	200	506.32101	-62.29241	568.61342	294.83333	19122.413	7259.3462	506.32101
	210	506.1332	-65.809276	571.94248	296.55949	19200.516	7259.3462	506.1332
	220	506.317	-66.208241	572.52524	296.86166	18990.935	7259.3462	506.317
	230	506.10845	-87.930147	594.0386	308.01661	19054.475	7259.3462	506.10845
	240	505.7834	-75.749894	581.53329	301.53245	19201.683	7259.3462	505.7834
	250	505.87906	-80.856676	586.73574	304.22998	19353.249	7259.3462	505.87906
	260	506.33685	-50.767435	557.10428	288.86569	19284.619	7259.3462	506.33685
	270	506.57623	-49.566705	556.14294	288.36722	19194.318	7259.3462	506.57623
	280	506.05895	-76.923224	582.98217	302.28371	19451.205	7259.3462	506.05895
	290	505.95199	-67.82607	573.77805	297.51126	19749.871	7259.3462	505.95199
	300	505.92585	-76.090404	582.01625	301.78287	20105.235	7259.3462	505.92585
	310	506.52744	-50.530254	557.05769	288.84154	20235.273	7259.3462	506.52744
	320	506.36661	-67.48368	573.85029	297.54871	20361.135	7259.3462	506.36661
	330	505.82821	-88.222046	594.05026	308.02266	20535.272	7259.3462	505.82821
	340	506.04256	-99.572154	605.61471	314.01897	20313.372	7259.3462	506.04256
	350	505.91998	-108.30722	614.2272	318.48466	20279.876	7259.3462	505.91998
	360	506.19836	-77.154427	583.35279	302.47588	19868.996	7259.3462	506.19836
	370	506.24762	-84.221016	590.46864	306.16554	19824.881	7259.3462	506.24762
	380	506.24418	-75.006746	581.25093	301.38604	19462.189	7259.3462	506.24418
	390	505.93643	-102.13001	608.06644	315.29022	19351.239	7259.3462	505.93643
	400	505.88234	-92.995763	598.8781	310.52596	19236.886	7259.3462	505.88234
	410	506.5998	-52.564757	559.16456	289.93398	19419.729	7259.3462	506.5998
	420	506.25384	-78.744119	584.99796	303.32892	19664.464	7259.3462	506.25384
	430	505.88586	-70.327072	576.21294	298.77378	19978.146	7259.3462	505.88586
	440	506.06147	-80.982075	587.04354	304.38958	20570.737	7259.3462	506.06147
	450	505.88831	-88.879818	594.76813	308.39488	20943.79	7259.3462	505.88831
	460	506.36493	-63.904275	570.2692	295.69187	20781.669	7259.3462	506.36493
	470	505.6752	-99.74149	605.41669	313.9163	20867.69	7259.3462	505.6752
	480	506.39064	-62.838294	569.22894	295.15248	20800.063	7259.3462	506.39064
	490	506.30036	-62.672418	568.97277	295.01966	21193.548	7259.3462	506.30036
	500	505.92602	-83.758309	589.68433	305.75887	21249.752	7259.3462	505.92602
	510	505.99256	-78.496359	584.48892	303.06498	20828.165	7259.3462	505.99256
	520	506.02104	-100.70171	606.72274	314.5935	20499.488	7259.3462	506.02104
	530	505.86733	-89.973571	595.8409	308.95112	20194.096	7259.3462	505.86733
	540	506.15942	-83.305737	589.46516	305.64523	20234.74	7259.3462	506.15942
	550	506.50649	-83.150082	589.65657	305.74447	20098.082	7259.3462	506.50649
	560	505.96969	-75.733335	581.70302	301.62046	20396.255	7259.3462	505.96969
	570	506.00948	-95.564292	601.57377	311.9237	20096.995	7259.3462	506.00948
	580	505.95685	-84.557198	590.51405	306.18909	19833.536	7259.3462	505.95685
	590	506.1426	-88.381642	594.52424	308.26842	20048.749	7259.3462	506.1426
	600	505.98179	-90.858038	596.83983	309.46909	20166.605	7259.3462	505.98179
	610	505.8782	-76.439372	582.31757	301.93911	20060.373	7259.3462	505.8782
	620	506.44125	-68.265513	574.70676	297.99281	19912.367	7259.3462	506.44125
	630	506.35727	-59.655321	566.01259	293.48477	20163.268	7259.3462	506.35727
	640	505.92522	-85.382616	591.30784	306.60068	20583.986	7259.3462	505.92522
	650	505.55902	-91.416981	596.976	309.53969	20266.089	7259.3462	505.55902
	660	506.54311	-62.93305	569.47616	295.28067	20229.831	7259.3462	506.54311
	670	505.95072	-68.087329	574.03805	297.64607	20144.445	7259.3462	505.95072
	680	506.62817	-49.184593	555.81276	288.19603	19712.461	7259.3462	506.62817
	690	505.6037	-93.216329	598.82002	310.49584	19698.034	7259.3462	505.6037
	700	506.21544	-75.393092	581.60853	301.57146	19524.954	7259.3462	506.21544
	710	505.91277	-76.673064	582.58584	302.07821	19258.682	7259.3462	505.91277
	720	506.20879	-64.726911	570.9357	296.03746	19031.637	7259.3462	506.20879
	730	506.39005	-52.126232	558.51628	289.59783	19004.63	7259.3462	506.39005
	740	506.07528	-67.3119	573.38718	297.30858	19240.953	7259.3462	506.07528
	750	505.95734	-69.124789	575.08213	298.18744	19351.419	7259.3462	505.95734
	760	505.91937	-88.848178	594.76755	308.39458	19139.494	7259.3462	505.91937
	770	506.56752	-72.778458	579.34598	300.3983	18844.382	7259.3462	506.56752
	780	505.70649	-85.800846	591.50733	306.70412	18729.741	7259.3462	505.70649
	790	506.4637	-80.230623	586.69433	304.20851	18780.068	7259.3462	506.4637
	800	506.11362	-71.276771	577.39039	299.3843	19033.134	7259.3462	506.11362
	810	506.40217	-78.411056	584.81322	303.23314	18878.14	7259.3462	506.40217
	820	505.74256	-99.319785	605.06235	313.73257	19140.34	7259.3462	505.74256
	830	505.48819	-91.167516	596.65571	309.37361	19574.399	7259.3462	505.48819
	840	506.6553	-60.152631	566.80793	293.89716	19885.777	7259.3462	506.6553
	850	505.97715	-64.937893	570.91504	296.02675	20098.17	7259.3462	505.97715
	860	506.53982	-50.116172	556.65599	288.63325	19868.133	7259.3462	506.53982
	870	505.50096	-80.077655	585.57862	303.63	19592.394	7259.3462	505.50096
	880	506.23087	-69.686026	575.9169	298.62028	19137.172	7259.3462	506.23087
	890	505.99725	-78.477157	584.47441	303.05746	18815.231	7259.3462	505.99725
	900	505.86196	-71.380588	577.24255	299.30764	18561.146	7259.3462	505.86196
	910	506.44244	-62.499498	568.94194	295.00367	18414.559	7259.3462	506.44244
	920	505.89995	-70.275329	576.17528	298.75425	18318.199	7259.3462	505.89995
	930	506.37211	-62.389245	568.76136	294.91004	18417.338	7259.3462	506.37211
	940	506.03369	-72.409916	578.44361	299.93041	18809.706	7259.3462	506.03369
	950	506.34341	-72.433736	578.77715	300.10335	18639.05	7259.3462	506.34341
	960	506.04343	-78.612693	584.65612	303.15168	18757.837	7259.3462	506.04343
	970	506.18144	-88.353555	594.535	308.274	19017.741	7259.3462	506.18144
	980	506.20407	-85.486015	591.69009	306.79888	19353.55	7259.3462	506.20407
	990	506.46681	-64.445741	570.91255	296.02546	19719.056	7259.3462	506.46681
	1000	505.85644	-86.057318	591.91375	306.91485	19730.996	7259.3462	505.85644
	1010	506.27583	-72.56939	578.84522	300.13865	19369.232	7259.3462	506.27583
	1020	506.12928	-73.081999	579.21128	300.32846	19173.408	7259.3462	506.12928
	1030	506.41883	-56.96079	563.37962	292.11954	19768.107	7259.3462	506.41883
	1040	506.39717	-49.703876	556.10105	288.34551	19627.961	7259.3462	506.39717
	1050	505.58065	-80.774757	586.35541	304.03278	19231.336	7259.3462	505.58065
	1060	506.48699	-66.396819	572.8838	297.04758	18638.7	7259.3462	506.48699
	1070	505.70315	-71.32387	577.02702	299.19589	18950.632	7259.3462	505.70315
	1080	506.29488	-65.354001	571.64888	296.40725	19260.063	7259.3462	506.29488
	1090	506.23339	-51.470385	557.70378	289.17654	18947.12	7259.3462	506.23339
	1100	505.88762	-68.303767	574.19139	297.72558	19063.145	7259.3462	505.88762
	1110	506.41578	-60.789955	567.20573	294.10343	18920.863	7259.3462	506.41578
	1120	506.4016	-58.19517	564.59677	292.75065	19019.743	7259.3462	506.4016
	1130	505.78463	-103.3788	609.16344	315.85903	19360.466	7259.3462	505.78463
	1140	505.78332	-100.78153	606.56485	314.51163	19198.53	7259.3462	505.78332
	1150	506.37649	-80.99597	587.37246	304.56013	19248.594	7259.3462	506.37649
	1160	506.2302	-83.556668	589.78687	305.81203	19369.723	7259.3462	506.2302
	1170	506.20602	-64.121759	570.32777	295.72224	19541.46	7259.3462	506.20602
	1180	505.74096	-83.284317	589.02528	305.41714	19969.473	7259.3462	505.74096
	1190	506.20161	-59.082364	565.28397	293.10697	19387.765	7259.3462	506.20161
	1200	506.49592	-49.947666	556.44359	288.52312	19172.659	7259.3462	506.49592
	1210	505.55712	-91.090297	596.64742	309.36932	19721.461	7259.3462	505.55712
	1220	506.35565	-56.817101	563.17275	292.01227	19450.326	7259.3462	506.35565
	1230	505.98878	-83.549778	589.53856	305.68328	19604.223	7259.3462	505.98878
	1240	506.3984	-77.419733	583.81813	302.71717	19460.742	7259.3462	506.3984
	1250	505.98793	-72.294667	578.28259	299.84692	19520.837	7259.3462	505.98793
	1260	505.73102	-84.013562	589.74459	305.79011	20012.067	7259.3462	505.73102
	1270	506.39726	-48.109747	554.507	287.51897	19910.014	7259.3462	506.39726
	1280	505.92836	-61.825097	567.75346	294.38743	20013.035	7259.3462	505.92836
	1290	506.27946	-54.605185	560.88464	290.82586	19421.202	7259.3462	506.27946
	1300	506.05166	-69.884405	575.93606	298.63021	19027.843	7259.3462	506.05166
	1310	505.79413	-90.383928	596.17805	309.12595	18991.114	7259.3462	505.79413
	1320	506.22691	-74.836556	581.06347	301.28884	19146.619	7259.3462	506.22691
	1330	506.24463	-83.138625	589.38325	305.60275	19006.345	7259.3462	506.24463
	1340	505.93932	-79.021382	584.9607	303.3096	18899.068	7259.3462	505.93932
	1350	506.16924	-79.441231	585.61047	303.64652	19434.366	7259.3462	506.16924
	1360	505.76222	-69.91861	575.68083	298.49787	19894.025	7259.3462	505.76222
	1370	506.59918	-44.934131	551.53331	285.97707	20002.825	7259.3462	506.59918
	1380	505.84673	-67.073037	572.91977	297.06623	20592.531	7259.3462	505.84673
	1390	505.98538	-60.002448	565.98782	293.47193	20338.529	7259.3462	505.98538
	1400	506.14105	-81.786247	587.9273	304.84782	19960.521	7259.3462	506.14105
	1410	505.91144	-81.184384	587.09583	304.4167	20335.097	7259.3462	505.91144
	1420	506.39318	-68.473299	574.86648	298.07562	21069.119	7259.3462	506.39318
	1430	505.83702	-73.885584	579.7226	300.59358	21203.395	7259.3462	505.83702
	1440	506.39068	-45.990386	552.38106	286.41665	20977.869	7259.3462	506.39068
	1450	505.90762	-82.827138	588.73476	305.2665	20776.443	7259.3462	505.90762
	1460	506.34131	-47.822346	554.16366	287.34094	20788.33	7259.3462	506.34131
	1470	505.81309	-73.693413	579.50651	300.48154	20888.075	7259.3462	505.81309
	1480	506.17816	-72.67466	578.85282	300.14259	20737.62	7259.3462	506.17816
	1490	506.22361	-41.923989	548.1476	284.22154	20699.478	7259.3462	506.22361
	1500	506.20471	-67.136857	573.34157	297.28493	20642.991	7259.3462	506.20471
	1510	506.51765	-55.31525	561.8329	291.31754	20432.878	7259.3462	506.51765
	1520	505.69419	-82.127144	587.82133	304.79288	20476.749	7259.3462	505.69419
	1530	505.99946	-91.09074	597.0902	309.59891	20007.567	7259.3462	505.99946
	1540	506.06183	-63.155986	569.21782	295.14672	19612.724	7259.3462	506.06183
	1550	506.47399	-57.861255	564.33524	292.61504	19423.273	7259.3462	506.47399
	1560	506.00195	-65.300083	571.30204	296.22741	19261.168	7259.3462	506.00195
	1570	505.82952	-60.016827	565.84634	293.39857	19320.215	7259.3462	505.82952
	1580	506.2064	-64.70561	570.91201	296.02518	18710.303	7259.3462	506.2064
	1590	505.99191	-63.41269	569.4046	295.24357	18192.575	7259.3462	505.99191
	1600	506.18603	-59.062954	565.24899	293.08883	18246.601	7259.3462	506.18603
	1610	505.76788	-70.186396	575.95428	298.63966	18472.109	7259.3462	505.76788
	1620	506.6201	-47.79783	554.41793	287.47279	18303.153	7259.3462	506.6201
	1630	506.18605	-70.224742	576.41079	298.87637	18478.001	7259.3462	506.18605
	1640	505.64926	-101.35971	607.00897	314.74191	18709.136	7259.3462	505.64926
	1650	506.07692	-86.033114	592.11003	307.01662	18986.346	7259.3462	506.07692
	1660	506.2295	-71.974216	578.20372	299.80602	19584.765	7259.3462	506.2295
	1670	506.44588	-64.663769	571.10965	296.12766	20256.26	7259.3462	506.44588
	1680	506.01777	-69.998296	576.01607	298.6717	20653.1	7259.3462	506.01777
	1690	506.21969	-75.957451	582.17714	301.86629	20972.278	7259.3462	506.21969
	1700	505.71121	-103.70245	609.41366	315.98878	21537.224	7259.3462	505.71121
	1710	506.25532	-68.693117	574.94843	298.11812	21849.951	7259.3462	506.25532
	1720	505.86357	-93.143917	599.00749	310.59304	21730.152	7259.3462	505.86357
	1730	506.4897	-75.102702	581.5924	301.5631	21366.99	7259.3462	506.4897
	1740	506.03474	-79.926068	585.96081	303.82817	21238.698	7259.3462	506.03474
	1750	505.72187	-100.8239	606.54577	314.50174	21588.288	7259.3462	505.72187
	1760	506.45235	-89.420177	595.87253	308.96753	21342.135	7259.3462	506.45235
	1770	505.60483	-100.65774	606.26257	314.3549	20921.573	7259.3462	505.60483
	1780	506.34407	-96.081011	602.42508	312.36511	20542.777	7259.3462	506.34407
	1790	505.91375	-87.650778	593.56452	307.7708	20451.757	7259.3462	505.91375
	1800	506.41526	-65.450312	571.86558	296.51961	20433.808	7259.3462	506.41526
	1810	506.11494	-68.456905	574.57185	297.92285	20144.089	7259.3462	506.11494
	1820	505.95662	-65.687077	571.64369	296.40457	19459.47	7259.3462	505.95662
	1830	506.04501	-66.890517	572.93552	297.0744	19313.234	7259.3462	506.04501
	1840	506.09283	-59.585796	565.67862	293.3116	18966.529	7259.3462	506.09283
	1850	506.10014	-62.773392	568.87353	294.9682	19348.019	7259.3462	506.10014
	1860	505.66421	-80.903318	586.56753	304.14276	19488.386	7259.3462	505.66421
	1870	506.23915	-74.703372	580.94252	301.22613	19060.293	7259.3462	506.23915
	1880	506.14417	-74.620123	580.76429	301.13371	18998.464	7259.3462	506.14417
	1890	506.21922	-81.614846	587.83407	304.79948	19116.365	7259.3462	506.21922
	1900	506.11066	-82.628338	588.739	305.2687	19540.052	7259.3462	506.11066
	1910	506.31638	-84.841353	591.15773	306.52284	19802.996	7259.3462	506.31638
	1920	505.75461	-101.59675	607.35136	314.91945	19951.697	7259.3462	505.75461
	1930	506.06217	-92.089229	598.1514	310.14915	19999.516	7259.3462	506.06217
	1940	505.97126	-93.890896	599.86216	311.0362	20243.464	7259.3462	505.97126
	1950	506.20526	-71.208872	577.41413	299.39661	20776.005	7259.3462	506.20526
	1960	506.16917	-72.076289	578.24546	299.82767	21171.007	7259.3462	506.16917
	1970	506.38451	-68.034234	574.41875	297.84347	20677.916	7259.3462	506.38451
	1980	506.00549	-85.228598	591.23409	306.56244	20671.496	7259.3462	506.00549
	1990	505.87549	-88.860617	594.73611	308.37828	20583.376	7259.3462	505.87549
	2000	506.18221	-75.282817	581.46502	301.49705	20933.731	7259.3462	506.18221
	2010	505.82214	-83.420573	589.24272	305.52988	20620.075	7259.3462	505.82214
	2020	506.46874	-76.312605	582.78135	302.17958	20103.039	7259.3462	506.46874
	2030	505.64422	-82.840477	588.4847	305.13684	20165.425	7259.3462	505.64422
	2040	506.10245	-76.155418	582.25787	301.90815	19957.051	7259.3462	506.10245
	2050	506.44573	-70.284888	576.73062	299.0422	19619.154	7259.3462	506.44573
	2060	506.02093	-77.156482	583.17741	302.38494	19301.901	7259.3462	506.02093
	2070	506.2495	-71.794534	578.04403	299.72322	18595.825	7259.3462	506.2495
	2080	505.99673	-77.187436	583.18417	302.38845	18784.097	7259.3462	505.99673
	2090	506.39767	-65.410176	571.80784	296.48968	18712.69	7259.3462	506.39767
	2100	506.01155	-71.08497	577.09652	299.23193	18946.91	7259.3462	506.01155
	2110	505.67047	-95.885997	601.55646	311.91472	18818.237	7259.3462	505.67047
	2120	506.326	-72.208648	578.53465	299.97762	18532.328	7259.3462	506.326
	2130	506.22385	-75.740337	581.96418	301.75587	18591.946	7259.3462	506.22385
	2140	506.25079	-68.938684	575.18947	298.2431	19289.698	7259.3462	506.25079
	2150	506.05638	-76.244947	582.30133	301.93069	19586.959	7259.3462	506.05638
	2160	506.11989	-85.322535	591.44242	306.67046	19609.603	7259.3462	506.11989
	2170	506.15246	-88.789307	594.94176	308.48491	19701.539	7259.3462	506.15246
	2180	505.65217	-102.04646	607.69863	315.09951	19970.934	7259.3462	505.65217
	2190	506.38069	-67.379188	573.75988	297.50183	20383.645	7259.3462	506.38069
	2200	506.26135	-56.291073	562.55242	291.69062	20493.434	7259.3462	506.26135
	2210	505.99562	-73.74593	579.74155	300.60341	20766.555	7259.3462	505.99562
	2220	506.66534	-48.096134	554.76148	287.65092	20151.742	7259.3462	506.66534
	2230	505.93744	-67.065277	573.00272	297.10924	20464.866	7259.3462	505.93744
	2240	506.14957	-70.35934	576.50891	298.92724	20760.438	7259.3462	506.14957
	2250	505.83056	-71.900557	577.73111	299.56097	20801.07	7259.3462	505.83056
	2260	505.94317	-74.357937	580.30111	300.89354	20512.674	7259.3462	505.94317
	2270	506.54776	-57.942737	564.49049	292.69554	19444.908	7259.3462	506.54776
	2280	505.64964	-82.386445	588.03609	304.90423	19465.628	7259.3462	505.64964
	2290	506.26575	-61.157137	567.42289	294.21603	19130.519	7259.3462	506.26575
	2300	506.39916	-48.645343	555.0445	287.79767	19004.158	7259.3462	506.39916
	2310	506.17235	-72.082778	578.25512	299.83268	19210.637	7259.3462	506.17235
	2320	505.6285	-70.687333	576.31583	298.82713	19118.327	7259.3462	505.6285
	2330	506.08554	-58.617875	564.70341	292.80594	19280.801	7259.3462	506.08554
	2340	506.36624	-48.23629	554.60253	287.5685	19163.871	7259.3462	506.36624
	2350	506.18378	-56.135158	562.31893	291.56956	19405.657	7259.3462	506.18378
	2360	505.93898	-66.319621	572.2586	296.7234	19071.516	7259.3462	505.93898
	2370	505.94358	-74.571363	580.51494	301.00442	18810.161	7259.3462	505.94358
	2380	506.26223	-65.083027	571.34525	296.24982	19197.582	7259.3462	506.26223
	2390	505.76389	-64.235414	569.9993	295.55193	19281.489	7259.3462	505.76389
	2400	506.58365	-61.537915	568.12157	294.5783	19029.518	7259.3462	506.58365
	2410	506.2192	-64.024347	570.24355	295.67857	18626.115	7259.3462	506.2192
	2420	505.77941	-93.261794	599.0412	310.61052	19060.064	7259.3462	505.77941
	2430	505.7094	-94.709381	600.41878	311.32482	19477.455	7259.3462	505.7094
	2440	506.02716	-68.359684	574.38684	297.82692	19521.152	7259.3462	506.02716
	2450	506.80315	-60.288762	567.09192	294.04441	19090.272	7259.3462	506.80315
	2460	505.87764	-61.449665	567.3273	294.16646	18724.209	7259.3462	505.87764
	2470	506.01237	-72.482291	578.49466	299.95688	18881.105	7259.3462	506.01237
	2480	506.24862	-74.209291	580.45791	300.97485	18824.533	7259.3462	506.24862
	2490	506.06894	-66.573488	572.64242	296.92242	18602.318	7259.3462	506.06894
	2500	505.59565	-106.88594	612.48159	317.57954	18221.764	7259.3462	505.59565
	2510	506.06304	-81.039972	587.10301	304.42042	17969.693	7259.3462	506.06304
	2520	506.40968	-73.231764	579.64144	300.5515	18054.471	7259.3462	506.40968
	2530	506.37155	-87.465029	593.83658	307.91186	18838.456	7259.3462	506.37155
	2540	505.79683	-88.619095	594.41592	308.21226	19434.229	7259.3462	505.79683
	2550	506.10163	-92.372335	598.47396	310.3164	19803.63	7259.3462	506.10163
	2560	505.85452	-94.76739	600.62191	311.43014	20122.43	7259.3462	505.85452
	2570	506.04873	-83.085646	589.13438	305.47371	20545.894	7259.3462	506.04873
	2580	506.08426	-74.77847	580.86273	301.18475	20839.243	7259.3462	506.08426
	2590	506.0364	-66.926112	572.96251	297.08839	20598.991	7259.3462	506.0364
	2600	506.37054	-65.561958	571.93249	296.55431	20131.15	7259.3462	506.37054
