#	Time(fs)	Total Energy(kcal/mol)	Potential Energy(kcal/mol)	Kinetic Energy(kcal/mol)	Temperature(K)	Pressure(atm)	Volume(A^3)	Conserved Quantity(kcal/mol)
	0	505.71711	-95.279017	600.99612	311.62418	20887.055	7259.3462	505.71711
	10	505.31712	-106.23104	611.54816	317.09554	21021.606	7259.3462	505.31712
	20	506.0581	-99.671752	605.72986	314.07868	20936.695	7259.3462	506.0581
	30	506.02033	-76.929543	582.94987	302.26696	20594.855	7259.3462	506.02033
	40	506.06859	-89.307029	595.37561	308.70987	20406.011	7259.3462	506.06859
	50	505.97574	-91.52965	597.50539	309.81419	20066.701	7259.3462	505.97574
	60	506.2	-76.611503	582.8115	302.19522	20019.026	7259.3462	506.2
	70	506.21165	-76.869105	583.08076	302.33483	20015.262	7259.3462	506.21165
	80	505.24175	-94.579535	599.82129	311.01501	19745.856	7259.3462	505.24175
	90	505.97773	-70.098419	576.07615	298.70285	19457.357	7259.3462	505.97773
	100	506.31398	-58.562701	564.87668	292.89579	18934.849	7259.3462	506.31398
	110	505.59175	-89.667612	595.25936	308.64959	18908.43	7259.3462	505.59175
	120	506.00721	-71.678988	577.6862	299.53768	18491.582	7259.3462	506.00721
	130	506.19299	-74.070413	580.26341	300.874	18777.203	7259.3462	506.19299
	140	506.01476	-74.08266	580.09742	300.78793	18796.191	7259.3462	506.01476
	150	505.7663	-75.674593	581.44089	301.48454	19248.605	7259.3462	505.7663
	160	505.71343	-87.095311	592.80874	307.37891	19285.303	7259.3462	505.71343
	170	506.24588	-64.597289	570.84317	295.98949	19313.808	7259.3462	506.24588
	180	505.59412	-93.021796	598.61591	310.39001	19166.854	7259.3462	505.59412
	190	505.90225	-76.480138	582.38239	301.97272	19275.549	7259.3462	505.90225
	200	506.37577	-57.692045	564.06782	292.47638	19396.61	7259.3462	506.37577
	210	505.41427	-100.90788	606.32216	314.38579	19601.818	7259.3462	505.41427
	220	505.91932	-77.134751	583.05407	302.32099	19170.763	7259.3462	505.91932
	230	506.1848	-66.351185	572.53599	296.86723	19036.999	7259.3462	506.1848
	240	506.10577	-78.764852	584.87062	303.2629	19044.688	7259.3462	506.10577
	250	505.75305	-82.413565	588.16662	304.97191	19004.162	7259.3462	505.75305
	260	505.13351	-104.69329	609.8268	316.20299	19192.165	7259.3462	505.13351
	270	506.35428	-76.724088	583.07837	302.33359	18754.293	7259.3462	506.35428
	280	505.89316	-65.402434	571.29559	296.22407	18818.602	7259.3462	505.89316
	290	505.77396	-66.010872	571.78483	296.47775	18766.322	7259.3462	505.77396
	300	506.60736	-43.035538	549.6429	284.99687	18570.721	7259.3462	506.60736
	310	505.8875	-63.855951	569.74345	295.41927	18606.509	7259.3462	505.8875
	320	505.55703	-83.432158	588.98919	305.39843	18779.527	7259.3462	505.55703
	330	505.48174	-83.000521	588.48226	305.13558	18889.422	7259.3462	505.48174
	340	505.89004	-79.50987	585.39991	303.53734	18780.048	7259.3462	505.89004
	350	506.06479	-70.239537	576.30433	298.82117	19257.92	7259.3462	506.06479
	360	505.64559	-72.237695	577.88329	299.63988	19622.643	7259.3462	505.64559
	370	506.39913	-63.178767	569.5779	295.33343	19613.965	7259.3462	506.39913
	380	506.00499	-65.167425	571.17241	296.1602	19515.571	7259.3462	506.00499
	390	505.87982	-81.188241	587.06806	304.4023	19951.749	7259.3462	505.87982
	400	505.61711	-88.190299	593.80741	307.89674	19928.026	7259.3462	505.61711
	410	505.90305	-77.944698	583.84774	302.73252	20026.04	7259.3462	505.90305
	420	505.8845	-88.175736	594.06024	308.02783	19681.233	7259.3462	505.8845
	430	505.51222	-88.189542	593.70176	307.84196	19597.178	7259.3462	505.51222
	440	506.59247	-67.155024	573.74749	297.49541	19414.956	7259.3462	506.59247
	450	506.08035	-79.412884	585.49324	303.58573	19660.379	7259.3462	506.08035
	460	505.85398	-78.139371	583.99335	302.80802	19839.2	7259.3462	505.85398
	470	505.52746	-91.366092	596.89356	309.49694	19967.103	7259.3462	505.52746
	480	506.56677	-68.023104	574.58987	297.9322	19509.444	7259.3462	506.56677
	490	505.9614	-70.722982	576.68439	299.01823	19869.214	7259.3462	505.9614
	500	505.53313	-96.808251	602.34138	312.32171	20124.275	7259.3462	505.53313
	510	505.97172	-89.531195	595.50291	308.77588	19958.849	7259.3462	505.97172
	520	505.81776	-87.436585	593.25434	307.60996	20032.259	7259.3462	505.81776
	530	506.16878	-85.963917	592.1327	307.02838	19718.637	7259.3462	506.16878
	540	505.63541	-84.131518	589.76693	305.8017	19398.648	7259.3462	505.63541
	550	505.91355	-90.565073	596.47862	309.28179	19181.742	7259.3462	505.91355
	560	505.92144	-76.968394	582.88984	302.23583	19054.943	7259.3462	505.92144
	570	505.8145	-66.581354	572.39586	296.79457	19053.825	7259.3462	505.8145
	580	505.8356	-86.510937	592.34654	307.13925	18672.912	7259.3462	505.8356
	590	505.74804	-68.140945	573.88899	297.56878	19261.272	7259.3462	505.74804
	600	505.85086	-73.514241	579.36511	300.40822	19446.139	7259.3462	505.85086
	610	506.02327	-79.110869	585.13414	303.39953	19566.03	7259.3462	506.02327
	620	506.0386	-68.51623	574.55483	297.91403	19485.919	7259.3462	506.0386
	630	506.0402	-80.078991	586.11919	303.91029	19782.593	7259.3462	506.0402
	640	505.66558	-83.594904	589.26048	305.53909	19943.544	7259.3462	505.66558
	650	505.82127	-92.55956	598.38083	310.26811	20071.033	7259.3462	505.82127
	660	506.12141	-87.57957	593.70098	307.84155	19925.003	7259.3462	506.12141
	670	505.51251	-96.090326	601.60284	311.93876	19650.826	7259.3462	505.51251
	680	505.9411	-89.268612	595.20972	308.62385	19715.646	7259.3462	505.9411
	690	506.03782	-72.120781	578.1586	299.78263	19737.223	7259.3462	506.03782
	700	506.39114	-77.675924	584.06707	302.84624	19853.168	7259.3462	506.39114
	710	505.7415	-98.673836	604.41533	313.39708	19531.443	7259.3462	505.7415
	720	505.32074	-107.26471	612.58546	317.63339	19464.322	7259.3462	505.32074
	730	506.33394	-94.435471	600.76941	311.50662	19623.986	7259.3462	506.33394
	740	505.98534	-92.535979	598.52132	310.34096	19910.18	7259.3462	505.98534
	750	505.72021	-95.726901	601.44711	311.85802	20240.866	7259.3462	505.72021
	760	505.85502	-91.695201	597.55022	309.83743	20421.699	7259.3462	505.85502
	770	506.00926	-79.760725	585.76998	303.72923	20632.294	7259.3462	506.00926
	780	505.81005	-89.050094	594.86015	308.44259	20878.58	7259.3462	505.81005
	790	505.90348	-88.323543	594.22702	308.11431	20789.906	7259.3462	505.90348
	800	505.71664	-89.670482	595.38712	308.71583	20725.971	7259.3462	505.71664
	810	505.98499	-84.601592	590.58658	306.22669	20963.043	7259.3462	505.98499
	820	505.58917	-101.69843	607.2876	314.88639	20818.814	7259.3462	505.58917
	830	505.92815	-82.993407	588.92155	305.36336	20597.637	7259.3462	505.92815
	840	506.57434	-73.078499	579.65284	300.55741	20370.226	7259.3462	506.57434
	850	505.28804	-104.57037	609.85841	316.21938	20661.758	7259.3462	505.28804
	860	505.87739	-85.870939	591.74833	306.82908	20560.03	7259.3462	505.87739
	870	505.96475	-90.209904	596.17465	309.12418	20789.511	7259.3462	505.96475
	880	506.12277	-88.94623	595.069	308.55089	20827.93	7259.3462	506.12277
	890	505.47777	-96.591661	602.06943	312.1807	20640.9	7259.3462	505.47777
	900	505.72437	-91.022485	596.74685	309.42088	20627.807	7259.3462	505.72437
	910	506.79629	-60.697245	567.49353	294.25266	20112.76	7259.3462	506.79629
	920	505.95466	-75.799696	581.75435	301.64707	20203.994	7259.3462	505.95466
	930	505.52923	-104.08542	609.61466	316.093	20341.13	7259.3462	505.52923
	940	505.73507	-92.331379	598.06644	310.1051	20501.735	7259.3462	505.73507
	950	506.20911	-68.594826	574.80394	298.04319	20366.766	7259.3462	506.20911
	960	505.89691	-90.662866	596.55978	309.32387	20121.931	7259.3462	505.89691
	970	505.72677	-74.727452	580.45422	300.97294	20410.924	7259.3462	505.72677
	980	506.49376	-67.109123	573.60288	297.42043	20339.101	7259.3462	506.49376
	990	505.73497	-87.222338	592.95731	307.45595	20464.965	7259.3462	505.73497
	1000	505.6352	-88.020203	593.6554	307.81792	20476.453	7259.3462	505.6352
	1010	506.49818	-87.104807	593.60299	307.79074	20103.513	7259.3462	506.49818
	1020	505.7729	-86.487471	592.26037	307.09458	19621.467	7259.3462	505.7729
	1030	505.89191	-94.385852	600.27776	311.25169	19618.981	7259.3462	505.89191
	1040	505.62593	-114.84436	620.47028	321.72178	19445.855	7259.3462	505.62593
	1050	506.28876	-86.338761	592.62752	307.28495	19178.768	7259.3462	506.28876
	1060	506.10387	-100.83804	606.94191	314.70714	19063.293	7259.3462	506.10387
	1070	505.055	-111.30399	616.35899	319.59002	19309.568	7259.3462	505.055
	1080	506.61057	-74.094816	580.70539	301.10317	19402.083	7259.3462	506.61057
	1090	506.23514	-78.539639	584.77478	303.2132	19345.859	7259.3462	506.23514
	1100	505.52127	-100.78253	606.3038	314.37627	19425.88	7259.3462	505.52127
	1110	505.35431	-109.32278	614.67709	318.71793	19582.889	7259.3462	505.35431
	1120	506.10205	-89.653954	595.756	308.90711	19781.713	7259.3462	506.10205
	1130	506.1469	-82.129415	588.27631	305.02879	19882.9	7259.3462	506.1469
	1140	505.67117	-86.554923	592.22609	307.0768	19789.714	7259.3462	505.67117
	1150	506.05957	-77.606572	583.66614	302.63836	19885.853	7259.3462	506.05957
	1160	506.53175	-66.424439	572.95619	297.08511	20290.81	7259.3462	506.53175
	1170	505.74226	-99.50192	605.24418	313.82685	20488.503	7259.3462	505.74226
	1180	505.30331	-114.67204	619.97535	321.46515	20609.761	7259.3462	505.30331
	1190	506.09537	-88.463903	594.55927	308.28659	20632.278	7259.3462	506.09537
	1200	506.09271	-83.617804	589.71052	305.77244	20767.32	7259.3462	506.09271
	1210	505.55032	-80.983471	586.53379	304.12527	21085.601	7259.3462	505.55032
	1220	506.46687	-47.848522	554.31539	287.41962	20686.371	7259.3462	506.46687
	1230	506.27911	-61.764903	568.04401	294.53808	20332.606	7259.3462	506.27911
	1240	505.63213	-79.700807	585.33293	303.50261	20713.891	7259.3462	505.63213
	1250	505.37203	-79.831738	585.20377	303.43564	20790.989	7259.3462	505.37203
	1260	506.31597	-55.269125	561.5851	291.18906	20612.049	7259.3462	506.31597
	1270	506.51876	-46.491851	553.01061	286.74307	20068.097	7259.3462	506.51876
	1280	505.30029	-89.700778	595.00106	308.51566	19676.138	7259.3462	505.30029
	1290	505.6979	-94.817642	600.51554	311.37499	19496.529	7259.3462	505.6979
	1300	506.62769	-63.352845	569.98053	295.5422	19181.349	7259.3462	506.62769
	1310	505.87213	-88.739097	594.61123	308.31353	19256.672	7259.3462	505.87213
	1320	505.29059	-96.246965	601.53756	311.90492	19161.226	7259.3462	505.29059
	1330	505.76413	-72.693209	578.45734	299.93753	19203.399	7259.3462	505.76413
	1340	506.82376	-51.996359	558.82012	289.75538	19406.652	7259.3462	506.82376
	1350	505.66571	-70.191519	575.85723	298.58934	19782.85	7259.3462	505.66571
	1360	505.37654	-98.879988	604.25653	313.31474	19831.512	7259.3462	505.37654
	1370	506.21758	-75.887657	582.10524	301.82901	19789.526	7259.3462	506.21758
	1380	505.73207	-76.434917	582.16699	301.86103	20533.685	7259.3462	505.73207
	1390	506.01954	-95.662952	601.6825	311.98007	20970.38	7259.3462	506.01954
	1400	505.74062	-83.669985	589.4106	305.61694	20625.377	7259.3462	505.74062
	1410	506.52662	-79.843277	586.3699	304.04029	20328.982	7259.3462	506.52662
	1420	505.2201	-116.52448	621.74459	322.38252	20616.534	7259.3462	505.2201
	1430	505.69813	-89.673551	595.37168	308.70783	20747.94	7259.3462	505.69813
	1440	506.74264	-73.965293	580.70793	301.10449	20477	7259.3462	506.74264
	1450	505.45147	-93.808871	599.26034	310.72415	20434.893	7259.3462	505.45147
	1460	505.32505	-99.560398	604.88545	313.64084	20025.203	7259.3462	505.32505
	1470	506.29126	-76.998403	583.28966	302.44315	19653.464	7259.3462	506.29126
	1480	507.04455	-44.035011	551.07956	285.7418	19918.445	7259.3462	507.04455
	1490	505.37988	-97.390649	602.77053	312.54423	19964.042	7259.3462	505.37988
	1500	505.09353	-102.64172	607.73525	315.1185	19811.843	7259.3462	505.09353
	1510	506.33714	-68.842458	575.1796	298.23798	19286.675	7259.3462	506.33714
	1520	506.64919	-61.212051	567.86124	294.44332	19197.954	7259.3462	506.64919
	1530	505.60459	-74.712135	580.31673	300.90164	19460.069	7259.3462	505.60459
	1540	505.52567	-86.483105	592.00877	306.96412	19436.225	7259.3462	505.52567
	1550	506.61171	-49.765597	556.3773	288.48875	19476.698	7259.3462	506.61171
	1560	506.01369	-56.261595	562.27529	291.54693	19511.575	7259.3462	506.01369
	1570	506.03898	-66.900457	572.93944	297.07643	19371.137	7259.3462	506.03898
	1580	505.70838	-82.000101	587.70848	304.73436	19002.325	7259.3462	505.70838
	1590	505.99231	-76.723884	582.7162	302.1458	19027.281	7259.3462	505.99231
	1600	505.79841	-78.913812	584.71222	303.18076	19032.902	7259.3462	505.79841
	1610	506.235	-55.217207	561.45221	291.12015	19240.159	7259.3462	506.235
	1620	506.41425	-42.485937	548.90018	284.61177	19694.596	7259.3462	506.41425
	1630	505.2248	-72.658344	577.88314	299.6398	19773.742	7259.3462	505.2248
	1640	505.7159	-62.97219	568.68809	294.87205	19865.132	7259.3462	505.7159
	1650	506.8219	-24.163851	530.98575	275.3229	19893.732	7259.3462	506.8219
	1660	506.04067	-59.89053	565.9312	293.44256	20144.476	7259.3462	506.04067
	1670	505.1824	-74.893452	580.07585	300.77675	20065.095	7259.3462	505.1824
	1680	505.55433	-66.141403	571.69574	296.43155	20127.958	7259.3462	505.55433
	1690	506.94322	-42.019815	548.96304	284.64436	19789.061	7259.3462	506.94322
	1700	506.19568	-49.639646	555.83532	288.20772	19480.094	7259.3462	506.19568
	1710	504.8435	-102.79107	607.63457	315.06629	19491.433	7259.3462	504.8435
	1720	506.16244	-61.952073	568.11451	294.57464	19447.295	7259.3462	506.16244
	1730	506.39189	-52.009063	558.40096	289.53804	19191.461	7259.3462	506.39189
	1740	506.22386	-65.636828	571.86069	296.51708	19074.947	7259.3462	506.22386
	1750	505.4789	-80.56862	586.04752	303.87313	19221.864	7259.3462	505.4789
	1760	505.60348	-89.190293	594.79378	308.40818	19267.523	7259.3462	505.60348
	1770	506.17696	-56.070002	562.24696	291.53224	19537.762	7259.3462	506.17696
	1780	505.90501	-55.872234	561.77724	291.28868	19748.061	7259.3462	505.90501
	1790	506.4648	-54.691918	561.15672	290.96693	19579.249	7259.3462	506.4648
	1800	505.53958	-79.865372	585.40495	303.53995	19946.521	7259.3462	505.53958
	1810	505.67186	-75.537953	581.20981	301.36472	20515.411	7259.3462	505.67186
	1820	506.0988	-67.209683	573.30848	297.26778	20621.352	7259.3462	506.0988
	1830	506.17977	-59.031517	565.21128	293.06928	20478.611	7259.3462	506.17977
	1840	506.07092	-75.676047	581.74697	301.64324	20290.828	7259.3462	506.07092
	1850	504.87463	-105.47671	610.35134	316.47497	20711.433	7259.3462	504.87463
	1860	506.72367	-55.945548	562.66921	291.75118	20561.86	7259.3462	506.72367
	1870	506.06443	-71.216118	577.28055	299.32735	20368.038	7259.3462	506.06443
	1880	505.69505	-83.186222	588.88127	305.34247	20014.935	7259.3462	505.69505
	1890	505.60363	-81.378955	586.98258	304.35798	19615.516	7259.3462	505.60363
	1900	506.01184	-83.083384	589.09523	305.45341	19951.304	7259.3462	506.01184
	1910	506.25535	-51.709051	557.9644	289.31168	19942.605	7259.3462	506.25535
	1920	505.39529	-86.467162	591.86245	306.88825	20160.557	7259.3462	505.39529
	1930	506.25496	-72.194789	578.44975	299.93359	19802.512	7259.3462	506.25496
	1940	505.97494	-59.668437	565.64337	293.29332	19800.548	7259.3462	505.97494
	1950	505.91336	-79.859806	585.77317	303.73088	20179.818	7259.3462	505.91336
	1960	505.66146	-79.673888	585.33535	303.50387	20172.418	7259.3462	505.66146
	1970	505.9053	-83.119243	589.02454	305.41676	20115.986	7259.3462	505.9053
	1980	506.08083	-75.339646	581.42048	301.47395	20179.574	7259.3462	506.08083
	1990	505.65712	-80.348606	586.00573	303.85146	20263.212	7259.3462	505.65712
	2000	505.98118	-80.052933	586.03412	303.86618	20652.888	7259.3462	505.98118
	2010	506.26041	-74.826246	581.08665	301.30086	20455.976	7259.3462	506.26041
	2020	505.64246	-98.900244	604.5427	313.46312	20499.736	7259.3462	505.64246
	2030	505.58686	-99.579332	605.16619	313.78641	20373.013	7259.3462	505.58686
	2040	505.90713	-90.982139	596.88927	309.49472	20292.209	7259.3462	505.90713
	2050	506.02024	-72.919173	578.93941	300.18749	20348.323	7259.3462	506.02024
	2060	505.7617	-69.369631	575.13133	298.21295	20450.38	7259.3462	505.7617
	2070	505.79909	-87.13049	592.92958	307.44157	20282.139	7259.3462	505.79909
	2080	506.3456	-68.357333	574.70293	297.99082	20190.187	7259.3462	506.3456
	2090	505.57588	-86.2675	591.84338	306.87836	20296.859	7259.3462	505.57588
	2100	505.5024	-98.043921	603.54632	312.94649	20601.708	7259.3462	505.5024
	2110	506.3945	-55.459471	561.85397	291.32847	20388.404	7259.3462	506.3945
	2120	506.07058	-67.614383	573.68496	297.46299	19997.907	7259.3462	506.07058
	2130	505.60575	-91.808989	597.41474	309.76718	19964.096	7259.3462	505.60575
	2140	505.75965	-90.091792	595.85144	308.95659	19937.111	7259.3462	505.75965
	2150	506.16501	-80.298335	586.46334	304.08874	19835.618	7259.3462	506.16501
	2160	506.08648	-74.494584	580.58107	301.03871	19865.787	7259.3462	506.08648
	2170	505.4885	-87.037277	592.52578	307.23219	19875.244	7259.3462	505.4885
	2180	505.91334	-88.713143	594.62648	308.32144	19691.397	7259.3462	505.91334
	2190	506.19362	-70.047146	576.24077	298.78821	19648.162	7259.3462	506.19362
	2200	505.57106	-95.769789	601.34085	311.80292	19572.606	7259.3462	505.57106
	2210	506.12145	-79.03482	585.15627	303.41101	19517.397	7259.3462	506.12145
	2220	505.62445	-74.45956	580.08401	300.78098	19464.628	7259.3462	505.62445
	2230	505.93433	-69.465583	575.39992	298.35222	19267.022	7259.3462	505.93433
	2240	505.71218	-67.42695	573.13913	297.17997	19524.023	7259.3462	505.71218
	2250	506.20749	-68.060931	574.26842	297.76552	19530.933	7259.3462	506.20749
	2260	506.44352	-69.216852	575.66038	298.48727	19370.035	7259.3462	506.44352
	2270	505.13987	-93.727737	598.86761	310.52051	19680.221	7259.3462	505.13987
	2280	505.60127	-91.896374	597.49765	309.81017	20175.789	7259.3462	505.60127
	2290	506.03744	-66.389349	572.42679	296.81061	20276.544	7259.3462	506.03744
	2300	506.10535	-54.061036	560.16639	290.45344	20569.564	7259.3462	506.10535
	2310	505.72569	-78.81847	584.54416	303.09363	20312.991	7259.3462	505.72569
	2320	505.49355	-74.048296	579.54184	300.49986	19667.717	7259.3462	505.49355
	2330	506.48093	-56.7178	563.19873	292.02574	19696.394	7259.3462	506.48093
	2340	505.63313	-77.028676	582.66181	302.1176	19763.637	7259.3462	505.63313
	2350	505.78092	-73.973527	579.75445	300.6101	19486.443	7259.3462	505.78092
	2360	506.01726	-67.91864	573.9359	297.5931	19395.335	7259.3462	506.01726
	2370	505.67043	-65.762419	571.43285	296.29524	19462.964	7259.3462	505.67043
	2380	506.23408	-54.158836	560.39291	290.57089	19600.493	7259.3462	506.23408
	2390	505.75458	-74.008512	579.76309	300.61458	19635.748	7259.3462	505.75458
	2400	506.1062	-76.114709	582.2209	301.88899	19821.692	7259.3462	506.1062
	2410	505.30913	-100.2323	605.54143	313.98097	19734.17	7259.3462	505.30913
	2420	505.71982	-100.4863	606.20612	314.32563	19888.209	7259.3462	505.71982
	2430	506.11774	-81.58597	587.70371	304.73189	20012.875	7259.3462	506.11774
	2440	505.97769	-88.248346	594.22603	308.1138	20335.436	7259.3462	505.97769
	2450	505.94954	-74.86789	580.81743	301.16126	20621.071	7259.3462	505.94954
	2460	505.58316	-74.891895	580.47505	300.98374	20406.402	7259.3462	505.58316
	2470	506.30166	-74.198687	580.50035	300.99686	20228.456	7259.3462	506.30166
	2480	505.31052	-93.605306	598.91583	310.54552	20121.589	7259.3462	505.31052
	2490	505.9024	-82.8846	588.787	305.29359	20091.76	7259.3462	505.9024
	2500	506.27178	-76.749056	583.02084	302.30376	19797.886	7259.3462	506.27178
	2510	505.78148	-64.710733	570.49221	295.80751	19716.444	7259.3462	505.78148
	2520	506.14581	-72.34048	578.48629	299.95254	19668.672	7259.3462	506.14581
	2530	505.26793	-100.86945	606.13739	314.28999	20010.613	7259.3462	505.26793
	2540	506.31863	-47.060522	553.37915	286.93417	20084.22	7259.3462	506.31863
	2550	505.68955	-75.769053	581.45861	301.49372	19818.104	7259.3462	505.68955
	2560	505.77166	-64.033296	569.80495	295.45116	19469.938	7259.3462	505.77166
	2570	506.18373	-31.361726	537.54546	278.72419	19345.794	7259.3462	506.18373
	2580	505.93753	-63.187223	569.12475	295.09846	19375.347	7259.3462	505.93753
	2590	506.14246	-61.167433	567.30989	294.15743	19438.814	7259.3462	506.14246
	2600	505.18255	-100.61132	605.79387	314.11187	19750.788	7259.3462	505.18255
