#	Time(fs)	Total Energy(kcal/mol)	Potential Energy(kcal/mol)	Kinetic Energy(kcal/mol)	Temperature(K)	Pressure(atm)	Volume(A^3)	Conserved Quantity(kcal/mol)
	0	730.17148	101.42767	628.74382	326.01171	18987.845	7259.3462	730.17148
	10	724.17309	74.579827	649.59326	336.82241	19460.266	7259.3462	724.96769
	20	733.73982	69.911297	663.82853	344.20358	19602.667	7259.3462	736.91062
	30	725.46427	77.927124	647.53714	335.75629	19319.883	7259.3462	732.58817
	40	709.86964	97.971531	611.89811	317.27699	18929.084	7259.3462	722.17577
	50	713.00285	76.979509	636.02334	329.78624	19072.927	7259.3462	731.54795
	60	707.30852	78.105583	629.20294	326.24977	19083.882	7259.3462	733.1438
	70	697.60982	71.380806	626.22902	324.70775	18613.586	7259.3462	731.79169
	80	682.66834	42.398975	640.26937	331.98786	18154.936	7259.3462	726.45635
	90	673.44723	52.969072	620.47816	321.72586	18045.053	7259.3462	728.06622
	100	669.92918	49.225254	620.70393	321.84292	18355.602	7259.3462	736.25144
	110	652.17078	66.807308	585.36347	303.51845	19062.947	7259.3462	730.48273
	120	639.93976	69.919249	570.02051	295.56292	19223.457	7259.3462	730.01846
	130	629.43878	51.819022	577.61976	299.50323	18845.451	7259.3462	731.15365
	140	615.51376	56.674462	558.8393	289.76532	18984.228	7259.3462	728.43844
	150	610.1432	46.564286	563.57892	292.22288	19569.229	7259.3462	733.95373
	160	596.60218	52.722792	543.87938	282.00842	19832.101	7259.3462	730.58661
	170	580.74433	49.243709	531.50062	275.58987	19525.031	7259.3462	724.07361
	180	579.70465	27.476218	552.22843	286.33751	18996.164	7259.3462	731.95874
	190	569.94349	8.0576613	561.88583	291.34499	18443.717	7259.3462	730.53935
	200	565.01057	9.4836092	555.52696	288.04783	18414.326	7259.3462	733.53809
	210	547.5494	-5.9186368	553.46804	286.98026	18482.34	7259.3462	723.49907
	220	539.94944	-21.338421	561.28786	291.03493	18651.296	7259.3462	723.11291
	230	545.47344	-6.1086018	551.58204	286.00234	18674.951	7259.3462	735.5025
	240	535.22996	-28.673307	563.90327	292.39105	18668.483	7259.3462	731.53812
	250	526.70557	-12.718875	539.42445	279.69848	18492.475	7259.3462	728.92867
	260	520.77813	-13.068148	533.84628	276.80612	18781.129	7259.3462	728.04227
	270	519.03618	-11.741784	530.77797	275.21516	18350.851	7259.3462	730.42858
	280	515.2922	-12.105076	527.39728	273.46223	17852.633	7259.3462	729.88762
	290	510.12032	-22.970586	533.09091	276.41445	17776.742	7259.3462	727.03214
	300	511.61373	0.39993442	511.2138	265.07089	17887.683	7259.3462	729.89729
	310	512.09397	-4.060992	516.15496	267.63295	18032.391	7259.3462	730.61622
	320	509.74562	-15.831626	525.57724	272.51852	17785.922	7259.3462	727.44339
	330	516.85481	-10.053605	526.90841	273.20875	17674.27	7259.3462	732.7175
	340	515.98967	-7.7957876	523.78545	271.58946	18028.705	7259.3462	728.97001
	350	512.43215	3.1546823	509.27746	264.06688	18464.177	7259.3462	721.50352
	360	523.32308	-6.4451512	529.76823	274.6916	18774.763	7259.3462	727.36708
	370	534.79754	-2.1973871	536.99493	278.43874	18531.553	7259.3462	732.79117
	380	541.99381	7.7608653	534.23295	277.00661	18542.244	7259.3462	733.09343
	390	539.36783	6.7309092	532.63693	276.17906	18870.288	7259.3462	722.83103
	400	552.47188	21.129659	531.34223	275.50774	19223.71	7259.3462	727.44808
	410	567.52537	29.041361	538.48401	279.21084	19668.684	7259.3462	733.09444
	420	570.75852	37.134164	533.62435	276.69105	19348.741	7259.3462	726.00888
	430	584.92498	30.968551	553.95643	287.23349	18986.721	7259.3462	729.00127
	440	595.38159	9.0214004	586.36019	304.03526	19293.416	7259.3462	727.53621
	450	609.37444	15.804956	593.56948	307.77337	19286.748	7259.3462	729.21994
	460	618.78581	3.8105915	614.97522	318.87252	18846.388	7259.3462	726.25294
	470	631.61955	24.25943	607.36012	314.92399	18347.957	7259.3462	727.15515
	480	646.2198	43.801968	602.41784	312.36135	18433.884	7259.3462	730.68208
	490	655.3319	37.90723	617.42467	320.14259	18827.248	7259.3462	729.38931
	500	666.31159	49.388122	616.92347	319.88271	18569.408	7259.3462	730.73243
	510	673.94242	33.433446	640.50897	332.11209	18446.616	7259.3462	729.36383
	520	676.25767	43.063101	633.19457	328.31948	18180.131	7259.3462	723.63463
	530	682.10432	49.106021	632.9983	328.21771	18742.681	7259.3462	722.7749
	540	693.89305	28.474371	665.41868	345.02809	19230.633	7259.3462	729.07019
	550	705.87833	69.725311	636.15302	329.85348	19426.953	7259.3462	737.26108
	560	695.86985	53.734546	642.1353	332.95537	20282.821	7259.3462	724.98119
	570	701.80652	56.280438	645.52608	334.71353	19699.902	7259.3462	730.13265
	580	711.70794	49.800489	661.90745	343.20748	19852.966	7259.3462	740.79945
	590	697.0211	49.951285	647.06981	335.51397	20397.626	7259.3462	728.45808
	600	688.26156	50.2342	638.02736	330.82534	20023.121	7259.3462	723.4564
	610	684.82044	14.020445	670.79999	347.81837	19389.214	7259.3462	725.36369
	620	684.05263	33.523331	650.5293	337.30776	18719.93	7259.3462	732.04923
	630	674.64705	8.9087635	665.73829	345.19382	19126.641	7259.3462	732.00987
	640	666.6717	0.68778416	665.98391	345.32118	19507.006	7259.3462	735.4423
	650	652.8799	21.432592	631.44731	327.4135	19355.874	7259.3462	734.22962
	660	637.32439	22.858462	614.46592	318.60844	19687.719	7259.3462	731.87897
	670	621.96567	50.39599	571.56968	296.36619	20149.108	7259.3462	729.70607
	680	606.03467	26.11756	579.91711	300.69444	20294.702	7259.3462	726.50307
	690	598.16808	25.572461	572.59562	296.89815	20246.993	7259.3462	731.72307
	700	583.76533	52.855985	530.90934	275.28328	20039.268	7259.3462	729.52302
	710	580.40223	19.425789	560.97645	290.87346	19713.072	7259.3462	737.62284
	720	557.90572	6.7696691	551.13605	285.77109	19343.596	7259.3462	726.18208
	730	549.17543	-16.153474	565.3289	293.13027	19434.737	7259.3462	727.96252
	740	540.49655	-19.138448	559.63499	290.1779	19399.762	7259.3462	729.51486
	750	528.99699	-4.8281754	533.82516	276.79517	18689.907	7259.3462	727.66537
	760	523.21545	-35.47422	558.68967	289.68774	18334.531	7259.3462	731.08769
	770	511.46002	-34.324638	545.78465	282.99632	17989.984	7259.3462	728.01859
	780	511.13307	-38.992615	550.12568	285.2472	17883.695	7259.3462	735.60042
	790	494.97854	-42.223463	537.202	278.54611	17830.941	7259.3462	726.56823
	800	487.318	-39.59379	526.91179	273.2105	17732.386	7259.3462	725.22191
	810	487.30729	-42.97962	530.28691	274.96055	17696.584	7259.3462	730.72418
	820	480.64267	-47.690717	528.33339	273.94762	17701.817	7259.3462	728.6202
	830	482.53261	-60.382788	542.9154	281.50858	18228.849	7259.3462	734.24078
	840	473.99522	-52.131466	526.12669	272.80342	18221.574	7259.3462	728.64932
	850	468.91048	-56.698093	525.60857	272.53477	18442.823	7259.3462	725.49855
	860	471.41281	-50.801907	522.21472	270.77501	18485.625	7259.3462	728.97059
	870	470.99805	-33.781786	504.77983	261.7348	18890.022	7259.3462	728.43206
	880	473.35786	-45.078911	518.43677	268.8161	18874.358	7259.3462	729.4447
	890	475.12752	-62.696047	537.82357	278.8684	19172.594	7259.3462	728.82132
	900	478.14468	-62.086198	540.23088	280.11662	19196.101	7259.3462	728.60747
	910	487.29844	-49.126862	536.4253	278.14338	18878.357	7259.3462	733.73732
	920	479.79697	-49.329336	529.1263	274.35875	18915.317	7259.3462	721.3458
	930	493.24908	-42.82587	536.07495	277.96172	19100.772	7259.3462	728.9806
	940	498.28933	-43.4132	541.70253	280.87969	19135.907	7259.3462	727.54148
	950	512.51577	-37.277891	549.79366	285.07504	18675.478	7259.3462	734.54473
	960	517.17975	-39.65438	556.83413	288.72562	18139.732	7259.3462	731.46333
	970	518.75178	-43.24702	561.9988	291.40357	18342.033	7259.3462	724.76668
	980	534.25688	-24.66369	558.92057	289.80747	18747.363	7259.3462	731.56652
	990	534.73797	-12.884881	547.62285	283.94945	18646.237	7259.3462	723.09588
	1000	549.9682	-9.5920323	559.56023	290.13914	18337.486	7259.3462	728.67815
	1010	556.68737	-13.587311	570.27468	295.69471	18622.424	7259.3462	725.26417
	1020	574.7163	-10.738446	585.45474	303.56577	18980.267	7259.3462	732.84922
	1030	588.44219	11.052177	577.39001	299.3841	19121.837	7259.3462	736.34455
	1040	584.15424	-3.2837852	587.43802	304.59413	19146.591	7259.3462	721.91216
	1050	604.01765	-0.42219959	604.43985	313.40979	18756.984	7259.3462	731.1878
	1060	604.59917	11.991546	592.60763	307.27463	18396.994	7259.3462	721.74292
	1070	620.73837	-7.0050873	627.74345	325.49301	18508.713	7259.3462	728.01323
	1080	636.54822	20.903387	615.64483	319.21972	18847.382	7259.3462	734.88822
	1090	639.94034	20.121137	619.81921	321.38418	19184.264	7259.3462	730.34541
	1100	649.41779	34.742005	614.67579	318.71726	19622.911	7259.3462	732.63823
	1110	645.53263	19.936285	625.59634	324.3797	20084.607	7259.3462	722.37544
	1120	657.88431	15.079508	642.8048	333.30251	20601.839	7259.3462	729.12951
	1130	659.92118	40.48883	619.43235	321.18359	20512.554	7259.3462	726.85573
	1140	664.39644	19.956874	644.43956	334.15016	20607.765	7259.3462	728.07136
	1150	672.43369	39.004526	633.42916	328.44112	20415.216	7259.3462	734.35756
	1160	665.37219	48.812796	616.5594	319.69393	20305.544	7259.3462	726.77432
	1170	672.22682	39.142666	633.08416	328.26223	19827.862	7259.3462	733.9528
	1180	663.82822	43.069335	620.75888	321.87142	19417.428	7259.3462	726.89511
	1190	663.87757	22.311743	641.56583	332.66009	19053.635	7259.3462	729.39346
	1200	662.28083	37.15988	625.12095	324.13321	18843.521	7259.3462	731.58034
	1210	654.38124	38.961395	615.41985	319.10306	19210.538	7259.3462	728.34346
	1220	653.84044	35.973089	617.86735	320.37212	19258.284	7259.3462	733.27573
	1230	638.90097	22.161515	616.73945	319.78729	18635.655	7259.3462	724.58046
	1240	635.96653	7.7583861	628.20814	325.73395	18190.115	7259.3462	729.05906
	1250	630.7234	16.048991	614.67441	318.71654	18069.138	7259.3462	732.12457
	1260	624.44593	19.993499	604.45244	313.41632	18557.511	7259.3462	734.59624
	1270	618.62517	34.809435	583.81574	302.71593	19066.179	7259.3462	737.95723
	1280	595.77508	38.055493	557.71959	289.18474	19459.639	7259.3462	723.73642
	1290	587.9858	24.472742	563.51306	292.18873	19060.854	7259.3462	724.17757
	1300	592.3398	35.541552	556.79825	288.70701	18316.742	7259.3462	736.53239
	1310	573.86532	19.863395	554.00193	287.25708	18006.986	7259.3462	725.40061
	1320	573.31122	10.860132	562.45109	291.63808	17957.757	7259.3462	732.04122
	1330	560.08171	-10.106716	570.18843	295.64999	17712.757	7259.3462	725.6758
	1340	559.58971	-15.379582	574.9693	298.12893	17540.303	7259.3462	732.01589
	1350	557.9441	12.002594	545.9415	283.07765	17473.026	7259.3462	736.9463
	1360	543.33164	-2.4711694	545.80281	283.00574	18004.783	7259.3462	728.00036
	1370	542.84224	8.1709829	534.67126	277.23388	17950.413	7259.3462	732.49163
	1380	525.97615	-16.567572	542.54372	281.31586	17525.784	7259.3462	719.72948
	1390	530.63066	-18.68695	549.31761	284.82821	17300.041	7259.3462	727.90426
	1400	529.70372	-3.6987584	533.40247	276.576	17132.402	7259.3462	729.94726
	1410	528.39826	-6.8987866	535.29704	277.55836	17335.491	7259.3462	730.92258
	1420	531.64574	-16.813702	548.45944	284.38324	17761.457	7259.3462	735.85927
	1430	522.1804	-40.507008	562.68741	291.76062	18226.253	7259.3462	727.42293
	1440	529.9197	-31.799304	561.719	291.25849	17888.866	7259.3462	735.6624
	1450	512.16905	-14.283989	526.45304	272.97263	18038.607	7259.3462	717.84393
	1460	521.88981	-32.505194	554.395	287.4609	18066.394	7259.3462	726.75153
	1470	532.02311	-14.854926	546.87804	283.56326	18273.771	7259.3462	735.64422
	1480	530.8619	-0.83055004	531.69245	275.68933	18353.921	7259.3462	732.65717
	1490	534.69837	-16.562638	551.26101	285.83588	18147.289	7259.3462	733.9013
	1500	526.72786	-19.566581	546.29444	283.26065	17946.873	7259.3462	722.64317
	1510	540.4134	-13.534982	553.94838	287.22932	17816.423	7259.3462	732.28361
	1520	534.00582	-19.949279	553.95509	287.2328	17672.75	7259.3462	721.35534
	1530	545.30399	-18.448669	563.75266	292.31296	17713.711	7259.3462	727.62805
	1540	560.8132	-10.601777	571.41497	296.28597	17804.855	7259.3462	737.89409
	1550	553.15191	-3.0685104	556.22042	288.4074	18104.223	7259.3462	724.93306
	1560	565.02603	-5.2120716	570.2381	295.67575	18458.381	7259.3462	731.06305
	1570	569.85003	-8.5690599	578.41909	299.91769	18872.086	7259.3462	729.92261
	1580	566.54013	-12.612948	579.15308	300.29828	18748.088	7259.3462	720.48404
	1590	583.88116	-6.2423633	590.12353	305.9866	18517.947	7259.3462	731.62183
	1600	591.21235	-1.3948614	592.60721	307.27442	18612.712	7259.3462	733.05953
	1610	591.57344	6.406055	585.16738	303.41677	18723.274	7259.3462	727.74925
	1620	594.82385	-14.044564	608.86842	315.70606	19046.522	7259.3462	725.50327
	1630	597.33365	-19.953313	617.28696	320.07119	18814.142	7259.3462	722.90599
	1640	615.85338	8.3575685	607.49581	314.99435	18621.179	7259.3462	736.97123
	1650	608.41604	1.060275	607.35577	314.92173	18952.889	7259.3462	725.81362
	1660	612.15975	5.0325851	607.12717	314.8032	19124.933	7259.3462	726.53716
	1670	623.24145	-5.3121271	628.55358	325.91307	18847.703	7259.3462	735.32784
	1680	618.10309	4.3797316	613.72336	318.22341	19003.147	7259.3462	728.70561
	1690	620.96458	6.9288337	614.03574	318.38539	19214.135	7259.3462	730.8667
	1700	613.23324	-6.8496418	620.08288	321.52091	19521.07	7259.3462	723.17791
	1710	622.46542	16.054571	606.41085	314.43178	20204.221	7259.3462	733.21026
	1720	616.74956	34.321175	582.42839	301.99657	20115.529	7259.3462	728.80264
	1730	614.22921	4.9104905	609.31872	315.93955	20103.578	7259.3462	727.91943
	1740	620.04156	9.4192488	610.62231	316.61548	19971.168	7259.3462	736.04669
	1750	614.22591	13.294954	600.93096	311.59039	19979.006	7259.3462	733.03869
	1760	602.42019	-2.6455077	605.0657	313.7343	20160.241	7259.3462	724.42076
	1770	601.08062	12.251817	588.8288	305.31527	19977.487	7259.3462	726.64137
	1780	597.56215	11.958768	585.60338	303.64284	19903.001	7259.3462	726.90778
	1790	599.00209	28.6403	570.36179	295.73988	19865.922	7259.3462	732.28079
	1800	589.43505	11.969399	577.46565	299.42332	19865.193	7259.3462	726.59636
	1810	592.67241	-5.5555739	598.22798	310.18886	19361.126	7259.3462	733.94466
	1820	587.84726	11.757465	576.08979	298.70992	19307.283	7259.3462	733.30481
	1830	576.37817	-9.1870012	585.56517	303.62303	19336.78	7259.3462	725.9527
	1840	578.5661	14.643934	563.92216	292.40085	18870.679	7259.3462	732.26643
	1850	566.27984	9.6772105	556.60263	288.60558	19076.802	7259.3462	723.61404
	1860	567.82815	8.9173418	558.91081	289.8024	18599.131	7259.3462	728.51556
	1870	566.5356	9.4695073	557.0661	288.8459	18169.546	7259.3462	730.25917
	1880	564.48671	-5.1285893	569.61529	295.35281	17852.182	7259.3462	730.83318
	1890	563.74879	1.2428244	562.50597	291.66654	17949.924	7259.3462	732.49607
	1900	550.70241	-23.688317	574.39073	297.82894	18700.646	7259.3462	721.60727
	1910	561.63256	-2.2432255	563.87578	292.3768	19121.892	7259.3462	734.58514
	1920	557.67714	0.18429633	557.49284	289.06717	19527.381	7259.3462	732.18409
	1930	549.63159	-9.1217908	558.75339	289.72078	19156.836	7259.3462	725.19279
	1940	551.91052	0.14686271	551.76366	286.09651	19282.318	7259.3462	728.21279
	1950	551.39961	-10.6936	562.09322	291.45252	19647.677	7259.3462	728.01066
	1960	559.10493	14.23295	544.87198	282.52309	19195.728	7259.3462	735.66551
	1970	552.08276	-4.8045871	556.88735	288.75321	19395.599	7259.3462	728.05007
	1980	551.14077	-10.472161	561.61293	291.20349	19241.523	7259.3462	726.06275
	1990	552.60708	-1.9198996	554.52698	287.52933	18968.03	7259.3462	726.12773
	2000	555.794	-21.665707	577.45971	299.42024	19535.302	7259.3462	727.46631
	2010	566.39544	14.658229	551.73721	286.0828	19127.416	7259.3462	736.04198
	2020	554.13455	1.4075221	552.72702	286.59603	18803.199	7259.3462	721.385
	2030	561.92197	-13.923608	575.84558	298.5833	18683.231	7259.3462	726.32745
	2040	572.07415	9.9617304	562.11242	291.46248	18971.704	7259.3462	733.53172
	2050	573.42495	-7.1042969	580.52925	301.01184	19062.602	7259.3462	731.62243
	2060	576.90738	15.780294	561.12708	290.95157	18907.706	7259.3462	731.76142
	2070	574.56928	-13.346367	587.91565	304.84178	19315.79	7259.3462	725.8377
	2080	579.47247	5.4820453	573.99042	297.62137	19281.374	7259.3462	727.05641
	2090	584.97406	16.489965	568.48409	294.76627	19035.24	7259.3462	728.79522
	2100	588.26738	-3.8651199	592.1325	307.02828	18219.921	7259.3462	728.16244
	2110	593.07283	13.996517	579.07631	300.25847	17837.222	7259.3462	729.29036
	2120	600.5754	-20.891102	621.46651	322.23833	18106.366	7259.3462	733.33234
	2130	598.06525	1.1233038	596.94194	309.52203	18319.96	7259.3462	728.00477
	2140	608.81347	21.681894	587.13158	304.43523	18781.999	7259.3462	736.30625
	2150	600.13559	18.539397	581.59619	301.56506	19060.579	7259.3462	725.26565
	2160	598.40681	22.518516	575.88829	298.60545	18849.244	7259.3462	721.25575
	2170	616.06655	-1.6258755	617.69243	320.28142	19250.198	7259.3462	736.74328
	2180	608.50646	37.324809	571.18165	296.16499	19471.078	7259.3462	727.44546
	2190	609.5394	35.840217	573.69918	297.47036	19737.658	7259.3462	726.77286
	2200	613.3044	41.43753	571.86687	296.52029	19423.742	7259.3462	728.86301
	2210	617.27502	44.623959	572.65106	296.9269	18741.641	7259.3462	731.07845
	2220	621.85621	35.011292	586.84492	304.28659	18573.7	7259.3462	733.75293
	2230	617.24757	40.936544	576.31103	298.82464	18681.154	7259.3462	727.31985
	2240	615.42445	30.398112	585.02634	303.34364	18822.246	7259.3462	723.6005
	2250	624.42206	33.282538	591.13952	306.5134	18734.136	7259.3462	730.83374
	2260	621.15542	35.562676	585.59275	303.63733	18753.809	7259.3462	726.15816
	2270	631.82988	46.073755	585.75613	303.72204	19287.531	7259.3462	735.61477
	2280	628.59222	37.416054	591.17617	306.5324	20020.692	7259.3462	731.28423
	2290	622.90019	29.677216	593.22297	307.5937	19951.863	7259.3462	724.66864
	2300	630.65936	36.187067	594.4723	308.24149	19417.422	7259.3462	731.81526
	2310	622.04224	21.946058	600.09618	311.15755	18957.786	7259.3462	722.83448
	2320	632.07337	29.331747	602.74162	312.52924	18658.09	7259.3462	732.99359
	2330	627.35173	26.733518	600.61821	311.42822	18599.788	7259.3462	729.01352
	2340	627.75187	19.045392	608.70648	315.6221	18604.812	7259.3462	730.61751
	2350	628.03312	16.032272	612.00084	317.33026	18855.306	7259.3462	732.755
	2360	616.83697	15.003537	601.83343	312.05833	19037.878	7259.3462	724.02981
	2370	623.74297	23.682063	600.0609	311.13925	19183.693	7259.3462	733.95183
	2380	615.46939	21.362159	594.10723	308.0522	19019.314	7259.3462	729.0094
	2390	611.35776	7.1677607	604.19	313.28024	18871.39	7259.3462	728.68514
	2400	606.84095	7.2407917	599.60015	310.90035	18813.807	7259.3462	728.50332
	2410	604.3778	1.6451052	602.7327	312.52461	19037.383	7259.3462	730.75741
	2420	601.93939	14.312384	587.627	304.69212	19162.521	7259.3462	733.47038
	2430	594.34047	14.266192	580.07427	300.77593	19187.039	7259.3462	731.13238
	2440	589.7737	2.4928435	587.28086	304.51264	19089.178	7259.3462	731.87452
	2450	584.39639	-3.0099641	587.40635	304.5777	18734.78	7259.3462	731.90746
	2460	576.38584	-13.417513	589.80335	305.82058	18625.528	7259.3462	729.41564
	2470	566.99967	0.97921965	566.02045	293.48884	18557.029	7259.3462	725.47178
	2480	566.02151	4.4256984	561.59582	291.19461	18199.781	7259.3462	729.70767
	2490	560.16242	0.19156626	559.97085	290.35205	17579.772	7259.3462	728.85806
	2500	556.24423	-11.440936	567.68517	294.35202	17447.943	7259.3462	729.65014
	2510	559.71118	-20.661291	580.37247	300.93055	17812.806	7259.3462	737.73841
	2520	543.26357	0.69356223	542.57001	281.32949	18274.68	7259.3462	725.47601
	2530	541.63653	-15.811501	557.44803	289.04393	18787.184	7259.3462	727.50678
	2540	540.22682	-7.0458371	547.27266	283.76787	18703.207	7259.3462	729.34861
	2550	540.53441	-5.2447207	545.77913	282.99346	18574.169	7259.3462	732.21894
	2560	536.64124	-12.495041	549.13629	284.73419	18781.725	7259.3462	730.3257
	2570	526.11155	-10.394313	536.50587	278.18515	18549.186	7259.3462	721.17768
	2580	536.63037	-20.262297	556.89267	288.75597	18266.97	7259.3462	732.44926
	2590	537.98217	-7.1553228	545.13749	282.66076	17647.628	7259.3462	734.07345
	2600	531.77283	-23.212475	554.9853	287.76698	17646.351	7259.3462	727.53102
	2610	533.44299	-16.961285	550.40427	285.39165	17797.254	7259.3462	728.36571
	2620	530.54407	-11.769419	542.31349	281.19648	18436.877	7259.3462	724.0261
